# ASYMMETRIC RF PULSE FOR SELECTIVE EXCITATION
# Number of points: 256
# Excitation bandwidth (Hz): 6.77/pulse_length 
# Power for 1ms 90deg pulse (gamma*B1): 1.67 kHz
# Developed by: Zenon STARCUK
# *******************************************************************
# VERSION 1.0 
# P10: Asymmetric amplitude modulated RF pulse
# TYPE  selective
# MODULATION    amplitude
# EXCITEWIDTH   6.77
# INVERTWIDTH   6.77
# INTEGRAL      0.15
# *******************************************************************
0.000          2.000   1.000000
0.000          2.000   1.000000
0.000          3.000   1.000000
0.000          3.000   1.000000
0.000          3.000   1.000000
0.000          4.000   1.000000
0.000          4.000   1.000000
0.000          5.000   1.000000
0.000          5.000   1.000000
0.000          5.000   1.000000
0.000          6.000   1.000000
0.000          6.000   1.000000
0.000          7.000   1.000000
0.000          7.000   1.000000
0.000          7.000   1.000000
0.000          8.000   1.000000
0.000          8.000   1.000000
0.000          8.000   1.000000
0.000          8.000   1.000000
0.000          9.000   1.000000
0.000          9.000   1.000000
0.000          9.000   1.000000
0.000          9.000   1.000000
0.000          9.000   1.000000
0.000          9.000   1.000000
0.000          9.000   1.000000
0.000          9.000   1.000000
0.000          8.000   1.000000
0.000          8.000   1.000000
0.000          8.000   1.000000
0.000          7.000   1.000000
0.000          7.000   1.000000
0.000          6.000   1.000000
0.000          5.000   1.000000
0.000          5.000   1.000000
0.000          4.000   1.000000
0.000          3.000   1.000000
0.000          2.000   1.000000
0.000          1.000   1.000000
180.000        0.000   1.000000
180.000        2.000   1.000000
180.000        3.000   1.000000
180.000        4.000   1.000000
180.000        6.000   1.000000
180.000        7.000   1.000000
180.000        9.000   1.000000
180.000       10.000   1.000000
180.000       12.000   1.000000
180.000       14.000   1.000000
180.000       15.000   1.000000
180.000       17.000   1.000000
180.000       19.000   1.000000
180.000       21.000   1.000000
180.000       22.000   1.000000
180.000       24.000   1.000000
180.000       25.000   1.000000
180.000       27.000   1.000000
180.000       29.000   1.000000
180.000       30.000   1.000000
180.000       31.000   1.000000
180.000       32.000   1.000000
180.000       34.000   1.000000
180.000       34.000   1.000000
180.000       35.000   1.000000
180.000       36.000   1.000000
180.000       36.000   1.000000
180.000       37.000   1.000000
180.000       37.000   1.000000
180.000       36.000   1.000000
180.000       36.000   1.000000
180.000       35.000   1.000000
180.000       34.000   1.000000
180.000       33.000   1.000000
180.000       32.000   1.000000
180.000       30.000   1.000000
180.000       28.000   1.000000
180.000       26.000   1.000000
180.000       23.000   1.000000
180.000       20.000   1.000000
180.000       17.000   1.000000
180.000       14.000   1.000000
180.000       10.000   1.000000
180.000        6.000   1.000000
180.000        2.000   1.000000
0.000          2.000   1.000000
0.000          7.000   1.000000
0.000         12.000   1.000000
0.000         17.000   1.000000
0.000         22.000   1.000000
0.000         27.000   1.000000
0.000         32.000   1.000000
0.000         38.000   1.000000
0.000         44.000   1.000000
0.000         49.000   1.000000
0.000         55.000   1.000000
0.000         61.000   1.000000
0.000         66.000   1.000000
0.000         72.000   1.000000
0.000         77.000   1.000000
0.000         82.000   1.000000
0.000         87.000   1.000000
0.000         92.000   1.000000
0.000         97.000   1.000000
0.000        101.000   1.000000
0.000        105.000   1.000000
0.000        108.000   1.000000
0.000        111.000   1.000000
0.000        113.000   1.000000
0.000        115.000   1.000000
0.000        117.000   1.000000
0.000        118.000   1.000000
0.000        118.000   1.000000
0.000        118.000   1.000000
0.000        116.000   1.000000
0.000        115.000   1.000000
0.000        112.000   1.000000
0.000        109.000   1.000000
0.000        105.000   1.000000
0.000        100.000   1.000000
0.000         95.000   1.000000
0.000         88.000   1.000000
0.000         81.000   1.000000
0.000         73.000   1.000000
0.000         64.000   1.000000
0.000         55.000   1.000000
0.000         45.000   1.000000
0.000         34.000   1.000000
0.000         22.000   1.000000
0.000         10.000   1.000000
180.000        3.000   1.000000
180.000       17.000   1.000000
180.000       31.000   1.000000
180.000       45.000   1.000000
180.000       60.000   1.000000
180.000       75.000   1.000000
180.000       90.000   1.000000
180.000      106.000   1.000000
180.000      122.000   1.000000
180.000      137.000   1.000000
180.000      153.000   1.000000
180.000      169.000   1.000000
180.000      184.000   1.000000
180.000      199.000   1.000000
180.000      213.000   1.000000
180.000      227.000   1.000000
180.000      241.000   1.000000
180.000      253.000   1.000000
180.000      265.000   1.000000
180.000      276.000   1.000000
180.000      286.000   1.000000
180.000      294.000   1.000000
180.000      302.000   1.000000
180.000      308.000   1.000000
180.000      313.000   1.000000
180.000      316.000   1.000000
180.000      318.000   1.000000
180.000      318.000   1.000000
180.000      316.000   1.000000
180.000      313.000   1.000000
180.000      308.000   1.000000
180.000      301.000   1.000000
180.000      292.000   1.000000
180.000      281.000   1.000000
180.000      269.000   1.000000
180.000      254.000   1.000000
180.000      237.000   1.000000
180.000      219.000   1.000000
180.000      198.000   1.000000
180.000      176.000   1.000000
180.000      152.000   1.000000
180.000      126.000   1.000000
180.000       98.000   1.000000
180.000       69.000   1.000000
180.000       38.000   1.000000
180.000        5.000   1.000000
0.000         28.000   1.000000
0.000         64.000   1.000000
0.000        100.000   1.000000
0.000        138.000   1.000000
0.000        176.000   1.000000
0.000        215.000   1.000000
0.000        255.000   1.000000
0.000        296.000   1.000000
0.000        336.000   1.000000
0.000        377.000   1.000000
0.000        418.000   1.000000
0.000        459.000   1.000000
0.000        500.000   1.000000
0.000        540.000   1.000000
0.000        579.000   1.000000
0.000        618.000   1.000000
0.000        655.000   1.000000
0.000        692.000   1.000000
0.000        727.000   1.000000
0.000        761.000   1.000000
0.000        793.000   1.000000
0.000        824.000   1.000000
0.000        853.000   1.000000
0.000        879.000   1.000000
0.000        904.000   1.000000
0.000        927.000   1.000000
0.000        947.000   1.000000
0.000        965.000   1.000000
0.000        981.000   1.000000
0.000        994.000   1.000000
0.000       1005.000   1.000000
0.000       1013.000   1.000000
0.000       1019.000   1.000000
0.000       1022.000   1.000000
0.000       1023.000   1.000000
0.000       1021.000   1.000000
0.000       1017.000   1.000000
0.000       1010.000   1.000000
0.000       1001.000   1.000000
0.000        989.000   1.000000
0.000        975.000   1.000000
0.000        959.000   1.000000
0.000        941.000   1.000000
0.000        921.000   1.000000
0.000        898.000   1.000000
0.000        875.000   1.000000
0.000        849.000   1.000000
0.000        822.000   1.000000
0.000        793.000   1.000000
0.000        763.000   1.000000
0.000        732.000   1.000000
0.000        700.000   1.000000
0.000        667.000   1.000000
0.000        634.000   1.000000
0.000        600.000   1.000000
0.000        565.000   1.000000
0.000        530.000   1.000000
0.000        495.000   1.000000
0.000        460.000   1.000000
0.000        426.000   1.000000
0.000        405.000   1.000000
0.000        383.000   1.000000
0.000        361.000   1.000000
0.000        339.000   1.000000
0.000        316.000   1.000000
0.000        294.000   1.000000
0.000        271.000   1.000000
0.000        249.000   1.000000
0.000        226.000   1.000000
0.000        204.000   1.000000
0.000        182.000   1.000000
0.000        161.000   1.000000
0.000        140.000   1.000000
0.000        120.000   1.000000
0.000        100.000   1.000000
0.000         82.000   1.000000
0.000         64.000   1.000000
0.000         46.000   1.000000
0.000         30.000   1.000000
0.000         14.000   1.000000
0.000          0.000   1.000000
