# 
#
# Hyperbolic Secant 180:	512 points
# This pulse is phase modulated and provides a selective
# inversion pulse by adiabatic fast passage.  The pulse
# parameters are mu = 5 and T = 5 ms.  The bandwidth (Hz)
# of the slice is approximately 16e+6/pulse_length (us).
# The pulse operates with B1 > 1000 Hz.
#***********************************************************************
# sech180: sech/tanh inversion pulse: b1(x)=1022*sech(x) b0(x)=A*tanh(x)
# VERSION 20.1
# TYPE		selective
# MODULATION	adiabatic
# EXCITEWIDTH	-1.000
# INVERTWIDTH	15.79
# INTEGRAL	-1.000
#***********************************************************************
	 -1228.2               14.0     1.0
         -1222.6               14.3     1.0
         -1217.0               14.6     1.0
         -1211.5               14.9     1.0
         -1205.9               15.2     1.0
         -1200.3               15.5     1.0
         -1194.7               15.8     1.0
         -1189.1               16.1     1.0
         -1183.5               16.4     1.0
         -1177.9               16.7     1.0
         -1172.3               17.1     1.0
         -1166.7               17.4     1.0
         -1161.1               17.8     1.0
         -1155.5               18.1     1.0
         -1149.9               18.5     1.0
         -1144.3               18.8     1.0
         -1138.7               19.2     1.0
         -1133.1               19.6     1.0
         -1127.5               20.0     1.0
         -1121.9               20.4     1.0
         -1116.3               20.8     1.0
         -1110.8               21.2     1.0
         -1105.2               21.6     1.0
         -1099.6               22.0     1.0
         -1094.0               22.4     1.0
         -1088.4               22.9     1.0
         -1082.8               23.3     1.0
         -1077.2               23.8     1.0
         -1071.6               24.3     1.0
         -1066.0               24.7     1.0
         -1060.4               25.2     1.0
         -1054.8               25.7     1.0
         -1049.2               26.2     1.0
         -1043.6               26.8     1.0
         -1038.0               27.3     1.0
         -1032.4               27.8     1.0
         -1026.8               28.4     1.0
         -1021.3               28.9     1.0
         -1015.7               29.5     1.0
         -1010.1               30.1     1.0
         -1004.5               30.7     1.0
          -998.9               31.3     1.0
          -993.3               31.9     1.0
          -987.7               32.5     1.0
          -982.1               33.2     1.0
          -976.5               33.8     1.0
          -970.9               34.5     1.0
          -965.3               35.2     1.0
          -959.7               35.9     1.0
          -954.1               36.6     1.0
          -948.6               37.3     1.0
          -943.0               38.0     1.0
          -937.4               38.8     1.0
          -931.8               39.5     1.0
          -926.2               40.3     1.0
          -920.6               41.1     1.0
          -915.0               41.9     1.0
          -909.4               42.7     1.0
          -903.8               43.6     1.0
          -898.2               44.4     1.0
          -892.6               45.3     1.0
          -887.1               46.2     1.0
          -881.5               47.1     1.0
          -875.9               48.0     1.0
          -870.3               49.0     1.0
          -864.7               50.0     1.0
          -859.1               50.9     1.0
          -853.5               51.9     1.0
          -847.9               53.0     1.0
          -842.4               54.0     1.0
          -836.8               55.1     1.0
          -831.2               56.2     1.0
          -825.6               57.3     1.0
          -820.0               58.4     1.0
          -814.4               59.5     1.0
          -808.8               60.7     1.0
          -803.2               61.9     1.0
          -797.7               63.1     1.0
          -792.1               64.4     1.0
          -786.5               65.6     1.0
          -780.9               66.9     1.0
          -775.3               68.2     1.0
          -769.7               69.6     1.0
          -764.2               71.0     1.0
          -758.6               72.4     1.0
          -753.0               73.8     1.0
          -747.4               75.2     1.0
          -741.8               76.7     1.0
          -736.3               78.2     1.0
          -730.7               79.8     1.0
          -725.1               81.3     1.0
          -719.5               82.9     1.0
          -714.0               84.6     1.0
          -708.4               86.2     1.0
          -702.8               87.9     1.0
          -697.2               89.6     1.0
          -691.7               91.4     1.0
          -686.1               93.2     1.0
          -680.5               95.0     1.0
          -674.9               96.9     1.0
          -669.4               98.8     1.0
          -663.8              100.7     1.0
          -658.2              102.7     1.0
          -652.7              104.7     1.0
          -647.1              106.8     1.0
          -641.5              108.9     1.0
          -636.0              111.0     1.0
          -630.4              113.2     1.0
          -624.9              115.4     1.0
          -619.3              117.7     1.0
          -613.7              120.0     1.0
          -608.2              122.3     1.0
          -602.6              124.7     1.0
          -597.1              127.1     1.0
          -591.5              129.6     1.0
          -586.0              132.2     1.0
          -580.4              134.8     1.0
          -574.9              137.4     1.0
          -569.3              140.1     1.0
          -563.8              142.8     1.0
          -558.3              145.6     1.0
          -552.7              148.4     1.0
          -547.2              151.3     1.0
          -541.7              154.3     1.0
          -536.1              157.3     1.0
          -530.6              160.4     1.0
          -525.1              163.5     1.0
          -519.5              166.7     1.0
          -514.0              169.9     1.0
          -508.5              173.2     1.0
          -503.0              176.6     1.0
          -497.5              180.0     1.0
          -492.0              183.5     1.0
          -486.5              187.0     1.0
          -481.0              190.7     1.0
          -475.5              194.4     1.0
          -470.0              198.1     1.0
          -464.5              202.0     1.0
          -459.0              205.9     1.0
          -453.5              209.8     1.0
          -448.1              213.9     1.0
          -442.6              218.0     1.0
          -437.1              222.2     1.0
          -431.7              226.5     1.0
          -426.2              230.8     1.0
          -420.8              235.3     1.0
          -415.3              239.8     1.0
          -409.9              244.4     1.0
          -404.5              249.0     1.0
          -399.1              253.8     1.0
          -393.6              258.6     1.0
          -388.2              263.6     1.0
          -382.8              268.6     1.0
          -377.4              273.7     1.0
          -372.0              278.9     1.0
          -366.7              284.2     1.0
          -361.3              289.6     1.0
          -355.9              295.0     1.0
          -350.6              300.6     1.0
          -345.2              306.3     1.0
          -339.9              312.0     1.0
          -334.6              317.9     1.0
          -329.3              323.8     1.0
          -324.0              329.9     1.0
          -318.7              336.0     1.0
          -313.4              342.3     1.0
          -308.1              348.6     1.0
          -302.9              355.1     1.0
          -297.6              361.6     1.0
          -292.4              368.3     1.0
          -287.2              375.0     1.0
          -282.0              381.9     1.0
          -276.8              388.9     1.0
          -271.7              395.9     1.0
          -266.5              403.1     1.0
          -261.4              410.4     1.0
          -256.3              417.8     1.0
          -251.2              425.3     1.0
          -246.1              432.9     1.0
          -241.0              440.6     1.0
          -236.0              448.4     1.0
          -231.0              456.4     1.0
          -226.0              464.4     1.0
          -221.0              472.5     1.0
          -216.0              480.8     1.0
          -211.1              489.1     1.0
          -206.2              497.5     1.0
          -201.3              506.1     1.0
          -196.5              514.7     1.0
          -191.7              523.4     1.0
          -186.9              532.3     1.0
          -182.1              541.2     1.0
          -177.4              550.2     1.0
          -172.7              559.3     1.0
          -168.0              568.5     1.0
          -163.4              577.8     1.0
          -158.8              587.1     1.0
          -154.2              596.5     1.0
          -149.7              606.0     1.0
          -145.2              615.6     1.0
          -140.8              625.2     1.0
          -136.4              634.9     1.0
          -132.0              644.6     1.0
          -127.7              654.4     1.0
          -123.4              664.3     1.0
          -119.2              674.2     1.0
          -115.0              684.1     1.0
          -110.9              694.0     1.0
          -106.8              704.0     1.0
          -102.8              713.9     1.0
           -98.8              723.9     1.0
           -94.9              733.9     1.0
           -91.0              743.9     1.0
           -87.2              753.8     1.0
           -83.4              763.8     1.0
           -79.8              773.6     1.0
           -76.1              783.5     1.0
           -72.6              793.3     1.0
           -69.1              803.0     1.0
           -65.6              812.7     1.0
           -62.3              822.3     1.0
           -59.0              831.8     1.0
           -55.8              841.2     1.0
           -52.6              850.4     1.0
           -49.6              859.6     1.0
           -46.6              868.6     1.0
           -43.7              877.4     1.0
           -40.9              886.2     1.0
           -38.1              894.7     1.0
           -35.5              903.0     1.0
           -32.9              911.2     1.0
           -30.4              919.2     1.0
           -28.0              926.9     1.0
           -25.7              934.4     1.0
           -23.5              941.7     1.0
           -21.3              948.7     1.0
           -19.3              955.5     1.0
           -17.4              961.9     1.0
           -15.5              968.1     1.0
           -13.8              974.1     1.0
           -12.1              979.7     1.0
           -10.6              984.9     1.0
            -9.1              989.9     1.0
            -7.8              994.6     1.0
            -6.6              998.9     1.0
            -5.4             1002.8     1.0
            -4.4             1006.4     1.0
            -3.5             1009.7     1.0
            -2.7             1012.5     1.0
            -2.0             1015.0     1.0
            -1.4             1017.1     1.0
            -0.9             1018.9     1.0
            -0.5             1020.2     1.0
            -0.2             1021.2     1.0
            -0.1             1021.8     1.0
             0.0             1022.0     1.0
            -0.1             1021.8     1.0
            -0.2             1021.2     1.0
            -0.5             1020.2     1.0
            -0.9             1018.9     1.0
            -1.4             1017.1     1.0
            -2.0             1015.0     1.0
            -2.7             1012.5     1.0
            -3.5             1009.7     1.0
            -4.4             1006.4     1.0
            -5.4             1002.8     1.0
            -6.6              998.9     1.0
            -7.8              994.6     1.0
            -9.1              989.9     1.0
           -10.6              984.9     1.0
           -12.1              979.7     1.0
           -13.8              974.1     1.0
           -15.5              968.1     1.0
           -17.4              961.9     1.0
           -19.3              955.5     1.0
           -21.3              948.7     1.0
           -23.5              941.7     1.0
           -25.7              934.4     1.0
           -28.0              926.9     1.0
           -30.4              919.2     1.0
           -32.9              911.2     1.0
           -35.5              903.0     1.0
           -38.1              894.7     1.0
           -40.9              886.2     1.0
           -43.7              877.4     1.0
           -46.6              868.6     1.0
           -49.6              859.6     1.0
           -52.6              850.4     1.0
           -55.8              841.2     1.0
           -59.0              831.8     1.0
           -62.3              822.3     1.0
           -65.6              812.7     1.0
           -69.1              803.0     1.0
           -72.6              793.3     1.0
           -76.1              783.5     1.0
           -79.8              773.6     1.0
           -83.4              763.8     1.0
           -87.2              753.8     1.0
           -91.0              743.9     1.0
           -94.9              733.9     1.0
           -98.8              723.9     1.0
          -102.8              713.9     1.0
          -106.8              704.0     1.0
          -110.9              694.0     1.0
          -115.0              684.1     1.0
          -119.2              674.2     1.0
          -123.4              664.3     1.0
          -127.7              654.4     1.0
          -132.0              644.6     1.0
          -136.4              634.9     1.0
          -140.8              625.2     1.0
          -145.2              615.6     1.0
          -149.7              606.0     1.0
          -154.2              596.5     1.0
          -158.8              587.1     1.0
          -163.4              577.8     1.0
          -168.0              568.5     1.0
          -172.7              559.3     1.0
          -177.4              550.2     1.0
          -182.1              541.2     1.0
          -186.9              532.3     1.0
          -191.7              523.4     1.0
          -196.5              514.7     1.0
          -201.3              506.1     1.0
          -206.2              497.5     1.0
          -211.1              489.1     1.0
          -216.0              480.8     1.0
          -221.0              472.5     1.0
          -226.0              464.4     1.0
          -231.0              456.4     1.0
          -236.0              448.4     1.0
          -241.0              440.6     1.0
          -246.1              432.9     1.0
          -251.2              425.3     1.0
          -256.3              417.8     1.0
          -261.4              410.4     1.0
          -266.5              403.1     1.0
          -271.7              395.9     1.0
          -276.8              388.9     1.0
          -282.0              381.9     1.0
          -287.2              375.0     1.0
          -292.4              368.3     1.0
          -297.6              361.6     1.0
          -302.9              355.1     1.0
          -308.1              348.6     1.0
          -313.4              342.3     1.0
          -318.7              336.0     1.0
          -324.0              329.9     1.0
          -329.3              323.8     1.0
          -334.6              317.9     1.0
          -339.9              312.0     1.0
          -345.2              306.3     1.0
          -350.6              300.6     1.0
          -355.9              295.0     1.0
          -361.3              289.6     1.0
          -366.7              284.2     1.0
          -372.0              278.9     1.0
          -377.4              273.7     1.0
          -382.8              268.6     1.0
          -388.2              263.6     1.0
          -393.6              258.6     1.0
          -399.1              253.8     1.0
          -404.5              249.0     1.0
          -409.9              244.4     1.0
          -415.3              239.8     1.0
          -420.8              235.3     1.0
          -426.2              230.8     1.0
          -431.7              226.5     1.0
          -437.1              222.2     1.0
          -442.6              218.0     1.0
          -448.1              213.9     1.0
          -453.5              209.8     1.0
          -459.0              205.9     1.0
          -464.5              202.0     1.0
          -470.0              198.1     1.0
          -475.5              194.4     1.0
          -481.0              190.7     1.0
          -486.5              187.0     1.0
          -492.0              183.5     1.0
          -497.5              180.0     1.0
          -503.0              176.6     1.0
          -508.5              173.2     1.0
          -514.0              169.9     1.0
          -519.5              166.7     1.0
          -525.1              163.5     1.0
          -530.6              160.4     1.0
          -536.1              157.3     1.0
          -541.7              154.3     1.0
          -547.2              151.3     1.0
          -552.7              148.4     1.0
          -558.3              145.6     1.0
          -563.8              142.8     1.0
          -569.3              140.1     1.0
          -574.9              137.4     1.0
          -580.4              134.8     1.0
          -586.0              132.2     1.0
          -591.5              129.6     1.0
          -597.1              127.1     1.0
          -602.6              124.7     1.0
          -608.2              122.3     1.0
          -613.7              120.0     1.0
          -619.3              117.7     1.0
          -624.9              115.4     1.0
          -630.4              113.2     1.0
          -636.0              111.0     1.0
          -641.5              108.9     1.0
          -647.1              106.8     1.0
          -652.7              104.7     1.0
          -658.2              102.7     1.0
          -663.8              100.7     1.0
          -669.4               98.8     1.0
          -674.9               96.9     1.0
          -680.5               95.0     1.0
          -686.1               93.2     1.0
          -691.7               91.4     1.0
          -697.2               89.6     1.0
          -702.8               87.9     1.0
          -708.4               86.2     1.0
          -714.0               84.6     1.0
          -719.5               82.9     1.0
          -725.1               81.3     1.0
          -730.7               79.8     1.0
          -736.3               78.2     1.0
          -741.8               76.7     1.0
          -747.4               75.2     1.0
          -753.0               73.8     1.0
          -758.6               72.4     1.0
          -764.2               71.0     1.0
          -769.7               69.6     1.0
          -775.3               68.2     1.0
          -780.9               66.9     1.0
          -786.5               65.6     1.0
          -792.1               64.4     1.0
          -797.7               63.1     1.0
          -803.2               61.9     1.0
          -808.8               60.7     1.0
          -814.4               59.5     1.0
          -820.0               58.4     1.0
          -825.6               57.3     1.0
          -831.2               56.2     1.0
          -836.8               55.1     1.0
          -842.4               54.0     1.0
          -847.9               53.0     1.0
          -853.5               51.9     1.0
          -859.1               50.9     1.0
          -864.7               50.0     1.0
          -870.3               49.0     1.0
          -875.9               48.0     1.0
          -881.5               47.1     1.0
          -887.1               46.2     1.0
          -892.6               45.3     1.0
          -898.2               44.4     1.0
          -903.8               43.6     1.0
          -909.4               42.7     1.0
          -915.0               41.9     1.0
          -920.6               41.1     1.0
          -926.2               40.3     1.0
          -931.8               39.5     1.0
          -937.4               38.8     1.0
          -943.0               38.0     1.0
          -948.6               37.3     1.0
          -954.1               36.6     1.0
          -959.7               35.9     1.0
          -965.3               35.2     1.0
          -970.9               34.5     1.0
          -976.5               33.8     1.0
          -982.1               33.2     1.0
          -987.7               32.5     1.0
          -993.3               31.9     1.0
          -998.9               31.3     1.0
         -1004.5               30.7     1.0
         -1010.1               30.1     1.0
         -1015.7               29.5     1.0
         -1021.3               28.9     1.0
         -1026.8               28.4     1.0
         -1032.4               27.8     1.0
         -1038.0               27.3     1.0
         -1043.6               26.8     1.0
         -1049.2               26.2     1.0
         -1054.8               25.7     1.0
         -1060.4               25.2     1.0
         -1066.0               24.7     1.0
         -1071.6               24.3     1.0
         -1077.2               23.8     1.0
         -1082.8               23.3     1.0
         -1088.4               22.9     1.0
         -1094.0               22.4     1.0
         -1099.6               22.0     1.0
         -1105.2               21.6     1.0
         -1110.8               21.2     1.0
         -1116.3               20.8     1.0
         -1121.9               20.4     1.0
         -1127.5               20.0     1.0
         -1133.1               19.6     1.0
         -1138.7               19.2     1.0
         -1144.3               18.8     1.0
         -1149.9               18.5     1.0
         -1155.5               18.1     1.0
         -1161.1               17.8     1.0
         -1166.7               17.4     1.0
         -1172.3               17.1     1.0
         -1177.9               16.7     1.0
         -1183.5               16.4     1.0
         -1189.1               16.1     1.0
         -1194.7               15.8     1.0
         -1200.3               15.5     1.0
         -1205.9               15.2     1.0
         -1211.5               14.9     1.0
         -1217.0               14.6     1.0
         -1222.6               14.3     1.0
         -1228.2               14.0     1.0
